Sample	TiO2
Comments	TiO2
Filename	C:\Users\Rigaku\Desktop\TiO2.raw
Goniometer	MiniFlex2 goniometer
Attachment	Standard sample holder
ScanningMode	2Theta/Theta
ScanningType	Continuos Scanning
X-Ray	30kV/15mA
DivSlit	1.25 deg.
SctSlit	1.25 deg.
RecSlit	0.3mm
Start	10
Stop	80
Step	0.1
10	171.333
10.1	202
10.2	175.333
10.3	168
10.4	183.333
10.5	173.333
10.6	190
10.7	202
10.8	184
10.9	187.333
11	196
11.1	172
11.2	202
11.3	192.667
11.4	192
11.5	188
11.6	190.667
11.7	217.333
11.8	194
11.9	204.667
12 	183.333
12.1	208.667
12.2	218
12.3	196.667
12.4	200.667
12.5	222.667
12.6	214
12.7	220
12.8	221.333
12.9	220
13	234.667
13.1	207.333
13.2	270.667
13.3	224
13.4	246
13.5	236
13.6	230
13.7	256
13.8	249.333
13.9	262.667
14	242
14.1	276.667
14.2	272.667
14.3	240
14.4	267.333
14.5	238
14.6	258
14.7	260.667
14.8	240.667
14.9	272
15	258.667
15.1	270.667
15.2	252
15.3	259.333
15.4	257.333
15.5	278.667
15.6	281.333
15.7	267.333
15.8	274
15.9	278
16	240
16.1	252
16.2	258
16.3	286.667
16.4	294.667
16.5	286.667
16.6	288
16.7	281.333
16.8	288
16.9	276
17	266.667
17.1	263.333
17.2	258
17.3	280.667
17.4	270
17.5	300.667
17.6	262.667
17.7	243.333
17.8	257.333
17.9	278
18	270
18.1	282
18.2	266.667
18.3	257.333
18.4	285.333
18.5	256.667
18.6	254
18.7	258.667
18.8	270.667
18.9	286
19	253.333
19.1	287.333
19.2	280.667
19.3	266.667
19.4	256
19.5	272.667
19.6	287.333
19.7	267.333
19.8	244
19.9	282.667
20	279.333
20.1	266
20.2	259.333
20.3	264.667
20.4	234.667
20.5	248.667
20.6	248.667
20.7	245.333
20.8	237.333
20.9	246.667
21	252
21.1	249.333
21.2	221.333
21.3	260
21.4	218.667
21.5	229.333
21.6	236.667
21.7	225.333
21.8	247.333
21.9	227.333
22	228
22.1	210
22.2	232
22.3	222.667
22.4	228
22.5	232
22.6	224
22.7	238
22.8	216
22.9	235.333
23	248
23.1	236
23.2	204
23.3	227.333
23.4	216.667
23.5	222
23.6	202.667
23.7	220
23.8	218
23.9	214
24	214.667
24.1	222
24.2	223.333
24.3	222.667
24.4	222
24.5	228
24.6	231.333
24.7	276
24.8	230
24.9	257.333
25	219.333
25.1	212.667
25.2	216
25.3	227.333
25.4	214.667
25.5	226.667
25.6	225.333
25.7	231.333
25.8	206.667
25.9	222.667
26	237.333
26.1	222
26.2	227.333
26.3	244.667
26.4	278
26.5	276
26.6	274
26.7	344
26.8	362.667
26.9	418.667
27	566
27.1	736
27.2	1541.33
27.3	4383.33
27.4	8350
27.5	5070.67
27.6	1374
27.7	671.333
27.8	457.333
27.9	340.667
28	317.333
28.1	299.333
28.2	272
28.3	254
28.4	257.333
28.5	260.667
28.6	254.667
28.7	266.667
28.8	231.333
28.9	246.667
29	246
29.1	250
29.2	235.333
29.3	231.333
29.4	212
29.5	230
29.6	224
29.7	231.333
29.8	230.667
29.9	224
30	238
30.1	224.667
30.2	218
30.3	212
30.4	210.667
30.5	222
30.6	230
30.7	224.667
30.8	218
30.9	216
31	189.333
31.1	213.333
31.2	206
31.3	210.667
31.4	196
31.5	212
31.6	202.667
31.7	236
31.8	210
31.9	212
32	211.333
32.1	206
32.2	211.333
32.3	197.333
32.4	244.667
32.5	234
32.6	202.667
32.7	203.333
32.8	202.667
32.9	200
33	205.333
33.1	174
33.2	190.667
33.3	204
33.4	195.333
33.5	200.667
33.6	198.667
33.7	194
33.8	180.667
33.9	189.333
34	208.667
34.1	212.667
34.2	188
34.3	210.667
34.4	183.333
34.5	191.333
34.6	212
34.7	219.333
34.8	228
34.9	229.333
35	226.667
35.1	213.333
35.2	246.667
35.3	247.333
35.4	254.667
35.5	274
35.6	317.333
35.7	360.667
35.8	575.333
35.9	1293.33
36	3646.67
36.1	4272
36.2	1890.67
36.3	617.333
36.4	380.667
36.5	292.667
36.6	250
36.7	196.667
36.8	216
36.9	208.667
37	211.333
37.1	204
37.2	202
37.3	201.333
37.4	191.333
37.5	177.333
37.6	177.333
37.7	194
37.8	181.333
37.9	174
38	185.333
38.1	195.333
38.2	170
38.3	188.667
38.4	192
38.5	192.667
38.6	180.667
38.7	176
38.8	198
38.9	227.333
39	302
39.1	496.667
39.2	565.333
39.3	382.667
39.4	249.333
39.5	193.333
39.6	224
39.7	168.667
39.8	190.667
39.9	183.333
40	192
40.1	196.667
40.2	176
40.3	174.667
40.4	178
40.5	169.333
40.6	208.667
40.7	201.333
40.8	206
40.9	275.333
41	407.333
41.1	1010
41.2	2049.33
41.3	1535.33
41.4	658.667
41.5	279.333
41.6	222
41.7	197.333
41.8	199.333
41.9	187.333
42	196
42.1	166.667
42.2	162
42.3	156
42.4	170.667
42.5	170.667
42.6	176.667
42.7	180.667
42.8	173.333
42.9	158
43	153.333
43.1	155.333
43.2	155.333
43.3	167.333
43.4	165.333
43.5	168
43.6	196
43.7	193.333
43.8	224.667
43.9	369.333
44	661.333
44.1	588
44.2	354
44.3	182
44.4	162
44.5	181.333
44.6	162.667
44.7	162
44.8	168
44.9	160.667
45	166
45.1	152.667
45.2	170.667
45.3	158.667
45.4	140
45.5	147.333
45.6	152
45.7	147.333
45.8	166
45.9	139.333
46	166
46.1	151.333
46.2	164.667
46.3	142
46.4	149.333
46.5	165.333
46.6	167.333
46.7	152.667
46.8	142.667
46.9	139.333
47	145.333
47.1	144
47.2	128.667
47.3	159.333
47.4	134
47.5	153.333
47.6	148.667
47.7	157.333
47.8	154
47.9	146
48	149.333
48.1	153.333
48.2	142.667
48.3	145.333
48.4	149.333
48.5	147.333
48.6	164.667
48.7	176
48.8	166
48.9	147.333
49	135.333
49.1	158
49.2	158
49.3	152
49.4	153.333
49.5	134.667
49.6	161.333
49.7	144.667
49.8	128.667
49.9	148
50	160
50.1	140
50.2	166.667
50.3	146.667
50.4	161.333
50.5	140.667
50.6	134
50.7	146
50.8	154
50.9	131.333
51	148.667
51.1	146.667
51.2	135.333
51.3	146
51.4	158
51.5	145.333
51.6	160.667
51.7	150.667
51.8	159.333
51.9	138
52	147.333
52.1	150
52.2	148
52.3	133.333
52.4	165.333
52.5	158.667
52.6	158
52.7	165.333
52.8	158.667
52.9	170.667
53	162.667
53.1	174
53.2	166.667
53.3	185.333
53.4	169.333
53.5	186
53.6	198
53.7	228
53.8	270.667
53.9	354
54	494.667
54.1	918.667
54.2	2539.33
54.3	4088
54.4	3028
54.5	1719.33
54.6	618
54.7	359.333
54.8	290.667
54.9	220.667
55	230.667
55.1	218.667
55.2	176.667
55.3	175.333
55.4	192.667
55.5	157.333
55.6	165.333
55.7	153.333
55.8	176
55.9	172.667
56	175.333
56.1	194
56.2	188.667
56.3	241.333
56.4	290
56.5	626
56.6	1164
56.7	960.667
56.8	684
56.9	358.667
57	210.667
57.1	216
57.2	158.667
57.3	162.667
57.4	169.333
57.5	145.333
57.6	151.333
57.7	134
57.8	157.333
57.9	146.667
58	134.667
58.1	138.667
58.2	144.667
58.3	144
58.4	132
58.5	152.667
58.6	144.667
58.7	150
58.8	140.667
58.9	144
59	148
59.1	150
59.2	166.667
59.3	150
59.4	154
59.5	136.667
59.6	166
59.7	141.333
59.8	139.333
59.9	150
60	142
60.1	134
60.2	134
60.3	144
60.4	134.667
60.5	162
60.6	153.333
60.7	146
60.8	141.333
60.9	132
61	138
61.1	160.667
61.2	140
61.3	144.667
61.4	142.667
61.5	152.667
61.6	174
61.7	161.333
61.8	139.333
61.9	166.667
62	165.333
62.1	164.667
62.2	181.333
62.3	157.333
62.4	198.667
62.5	238.667
62.6	461.333
62.7	813.333
62.8	685.333
62.9	568
63	311.333
63.1	192
63.2	148.667
63.3	164
63.4	158
63.5	142
63.6	161.333
63.7	170.667
63.8	226
63.9	314
64	544.667
64.1	499.333
64.2	416
64.3	284.667
64.4	202
64.5	202
64.6	140
64.7	161.333
64.8	146
64.9	142.667
65	140.667
65.1	133.333
65.2	146
65.3	146.667
65.4	146.667
65.5	168
65.6	158.667
65.7	158
65.8	146.667
65.9	137.333
66	160.667
66.1	154.667
66.2	150.667
66.3	141.333
66.4	150.667
66.5	130
66.6	142.667
66.7	140.667
66.8	134.667
66.9	146
67	149.333
67.1	142
67.2	154.667
67.3	145.333
67.4	138.667
67.5	145.333
67.6	139.333
67.7	147.333
67.8	141.333
67.9	132
68	150.667
68.1	160.667
68.2	163.333
68.3	170.667
68.4	176.667
68.5	184
68.6	214.667
68.7	296.667
68.8	441.333
68.9	883.333
69	1190.67
69.1	939.333
69.2	774.667
69.3	432.667
69.4	347.333
69.5	282
69.6	382.667
69.7	760
69.8	897.333
69.9	616
70	500.667
70.1	282
70.2	198
70.3	184
70.4	164.667
70.5	156
70.6	148.667
70.7	138
70.8	143.333
70.9	134.667
71	139.333
71.1	138
71.2	138
71.3	124.667
71.4	133.333
71.5	134
71.6	127.333
71.7	144.667
71.8	152
71.9	146
72	154.667
72.1	140.667
72.2	144
72.3	184.667
72.4	194
72.5	174
72.6	156.667
72.7	156.667
72.8	140.667
72.9	146
73	147.333
73.1	142.667
73.2	137.333
73.3	121.333
73.4	146
73.5	131.333
73.6	138.667
73.7	122
73.8	127.333
73.9	125.333
74	124.667
74.1	129.333
74.2	124.667
74.3	158.667
74.4	142.667
74.5	129.333
74.6	137.333
74.7	129.333
74.8	131.333
74.9	130.667
75	133.333
75.1	132
75.2	119.333
75.3	123.333
75.4	132
75.5	122
75.6	120
75.7	135.333
75.8	138
75.9	134.667
76	153.333
76.1	141.333
76.2	148
76.3	154
76.4	212
76.5	268.667
76.6	260.667
76.7	201.333
76.8	188.667
76.9	158
77	150.667
77.1	118
77.2	118.667
77.3	118
77.4	130.667
77.5	119.333
77.6	117.333
77.7	126.667
77.8	128.667
77.9	132.667
78	128.667
78.1	116
78.2	118
78.3	128
78.4	126.667
78.5	128.667
78.6	124
78.7	122
78.8	124.667
78.9	110
79	118.667
79.1	122.667
79.2	146
79.3	125.333
79.4	129.333
79.5	126.667
79.6	152.667
79.7	164
79.8	200
79.9	174.667
80	165.333
